"Rtot_PMMApaint_CacO3_10vv - RawData"
"Wavelength nm.","R%"
220.00,10.648
221.00,10.619
222.00,10.529
223.00,10.509
224.00,10.541
225.00,10.600
226.00,10.616
227.00,10.600
228.00,10.587
229.00,10.600
230.00,10.618
231.00,10.665
232.00,10.693
233.00,10.716
234.00,10.729
235.00,10.769
236.00,10.762
237.00,10.791
238.00,10.859
239.00,10.947
240.00,11.100
241.00,11.191
242.00,11.332
243.00,11.429
244.00,11.551
245.00,11.662
246.00,11.803
247.00,11.936
248.00,12.105
249.00,12.236
250.00,12.383
251.00,12.503
252.00,12.602
253.00,12.660
254.00,12.779
255.00,12.878
256.00,12.974
257.00,13.032
258.00,13.111
259.00,13.244
260.00,13.319
261.00,13.345
262.00,13.386
263.00,13.405
264.00,13.448
265.00,13.414
266.00,13.487
267.00,13.509
268.00,13.527
269.00,13.451
270.00,13.458
271.00,13.501
272.00,13.496
273.00,13.400
274.00,13.329
275.00,13.301
276.00,13.345
277.00,13.314
278.00,13.319
279.00,13.287
280.00,13.287
281.00,13.230
282.00,13.215
283.00,13.196
284.00,13.216
285.00,13.182
286.00,13.165
287.00,13.138
288.00,13.184
289.00,13.218
290.00,13.283
291.00,13.337
292.00,13.406
293.00,13.475
294.00,13.543
295.00,13.623
296.00,13.709
297.00,13.751
298.00,13.811
299.00,13.811
300.00,13.838
301.00,13.886
302.00,13.952
303.00,14.044
304.00,14.067
305.00,13.829
306.00,13.530
307.00,13.283
308.00,13.294
309.00,13.366
310.00,13.445
311.00,13.599
312.00,13.737
313.00,13.836
314.00,14.033
315.00,14.235
316.00,14.584
317.00,14.914
318.00,15.385
319.00,15.956
320.00,16.529
321.00,17.225
322.00,17.933
323.00,18.730
324.00,19.653
325.00,20.595
326.00,21.732
327.00,22.891
328.00,24.166
329.00,25.492
330.00,26.832
331.00,28.099
332.00,29.436
333.00,30.775
334.00,32.209
335.00,33.564
336.00,34.814
337.00,36.034
338.00,37.372
339.00,38.613
340.00,39.869
341.00,40.900
342.00,42.044
343.00,43.037
344.00,44.044
345.00,44.899
346.00,45.866
347.00,46.806
348.00,47.700
349.00,48.437
350.00,49.110
351.00,49.826
352.00,50.423
353.00,51.061
354.00,51.719
355.00,52.382
356.00,52.927
357.00,53.362
358.00,53.854
359.00,54.325
360.00,54.820
361.00,55.293
362.00,55.702
363.00,56.002
364.00,56.333
365.00,56.567
366.00,56.860
367.00,57.043
368.00,57.326
369.00,57.633
370.00,57.920
371.00,58.130
372.00,57.924
373.00,57.658
374.00,57.354
375.00,57.355
376.00,57.300
377.00,57.258
378.00,57.190
379.00,57.217
380.00,57.293
381.00,57.492
382.00,57.811
383.00,58.091
384.00,58.419
385.00,58.720
386.00,59.015
387.00,59.260
388.00,59.420
389.00,59.668
390.00,59.920
391.00,60.172
392.00,60.375
393.00,60.494
394.00,60.695
395.00,60.843
396.00,61.029
397.00,61.133
398.00,61.254
399.00,61.364
400.00,61.450
401.00,61.542
402.00,61.630
403.00,61.688
404.00,61.774
405.00,61.793
406.00,61.820
407.00,61.814
408.00,61.870
409.00,61.932
410.00,61.919
411.00,61.896
412.00,61.866
413.00,61.895
414.00,61.947
415.00,61.981
416.00,61.974
417.00,61.922
418.00,61.986
419.00,61.986
420.00,62.047
421.00,62.029
422.00,62.072
423.00,62.099
424.00,62.073
425.00,62.151
426.00,62.182
427.00,62.256
428.00,62.241
429.00,62.230
430.00,62.241
431.00,62.220
432.00,62.207
433.00,62.225
434.00,62.203
435.00,62.281
436.00,62.254
437.00,62.329
438.00,62.290
439.00,62.268
440.00,62.308
441.00,62.378
442.00,62.484
443.00,62.484
444.00,62.467
445.00,62.431
446.00,62.453
447.00,62.435
448.00,62.500
449.00,62.502
450.00,62.587
451.00,62.624
452.00,62.698
453.00,62.717
454.00,62.724
455.00,62.780
456.00,62.829
457.00,62.894
458.00,62.866
459.00,62.855
460.00,62.888
461.00,62.912
462.00,62.919
463.00,62.868
464.00,62.813
465.00,62.840
466.00,62.856
467.00,62.916
468.00,62.936
469.00,62.958
470.00,62.950
471.00,62.920
472.00,62.898
473.00,62.924
474.00,62.954
475.00,63.001
476.00,63.026
477.00,63.029
478.00,63.004
479.00,63.008
480.00,63.019
481.00,63.009
482.00,63.035
483.00,63.036
484.00,63.081
485.00,63.056
486.00,63.029
487.00,63.044
488.00,63.009
489.00,63.032
490.00,62.999
491.00,63.032
492.00,63.059
493.00,63.050
494.00,63.025
495.00,62.955
496.00,62.925
497.00,62.936
498.00,62.946
499.00,62.956
500.00,62.946
501.00,62.976
502.00,62.992
503.00,62.976
504.00,62.976
505.00,62.982
506.00,63.038
507.00,63.054
508.00,63.004
509.00,62.970
510.00,62.916
511.00,62.955
512.00,62.903
513.00,62.895
514.00,62.869
515.00,62.886
516.00,62.931
517.00,62.961
518.00,62.976
519.00,62.955
520.00,62.926
521.00,62.899
522.00,62.923
523.00,62.929
524.00,62.970
525.00,62.912
526.00,62.937
527.00,62.937
528.00,62.965
529.00,62.913
530.00,62.911
531.00,62.875
532.00,62.884
533.00,62.831
534.00,62.822
535.00,62.771
536.00,62.746
537.00,62.704
538.00,62.743
539.00,62.682
540.00,62.679
541.00,62.611
542.00,62.596
543.00,62.567
544.00,62.511
545.00,62.595
546.00,62.536
547.00,62.572
548.00,62.539
549.00,62.578
550.00,62.615
551.00,62.565
552.00,62.585
553.00,62.571
554.00,62.579
555.00,62.578
556.00,62.494
557.00,62.493
558.00,62.401
559.00,62.364
560.00,62.309
561.00,62.225
562.00,62.178
563.00,62.122
564.00,62.140
565.00,62.100
566.00,62.023
567.00,62.000
568.00,62.006
569.00,62.031
570.00,62.052
571.00,62.026
572.00,62.052
573.00,62.022
574.00,62.056
575.00,62.043
576.00,62.029
577.00,62.035
578.00,61.951
579.00,61.925
580.00,61.841
581.00,61.791
582.00,61.799
583.00,61.741
584.00,61.770
585.00,61.704
586.00,61.697
587.00,61.702
588.00,61.647
589.00,61.673
590.00,61.621
591.00,61.637
592.00,61.594
593.00,61.577
594.00,61.579
595.00,61.582
596.00,61.583
597.00,61.566
598.00,61.538
599.00,61.544
600.00,61.521
601.00,61.520
602.00,61.471
603.00,61.412
604.00,61.388
605.00,61.330
606.00,61.297
607.00,61.248
608.00,61.193
609.00,61.191
610.00,61.121
611.00,61.153
612.00,61.115
613.00,61.102
614.00,61.068
615.00,60.970
616.00,61.004
617.00,60.951
618.00,60.958
619.00,60.895
620.00,60.886
621.00,60.884
622.00,60.863
623.00,60.803
624.00,60.802
625.00,60.712
626.00,60.718
627.00,60.688
628.00,60.706
629.00,60.684
630.00,60.618
631.00,60.617
632.00,60.577
633.00,60.522
634.00,60.467
635.00,60.419
636.00,60.459
637.00,60.427
638.00,60.399
639.00,60.367
640.00,60.306
641.00,60.279
642.00,60.214
643.00,60.176
644.00,60.165
645.00,60.110
646.00,60.111
647.00,60.058
648.00,60.062
649.00,60.075
650.00,60.051
651.00,60.033
652.00,59.987
653.00,59.931
654.00,59.901
655.00,59.839
656.00,59.878
657.00,59.911
658.00,59.930
659.00,59.917
660.00,59.813
661.00,59.673
662.00,59.585
663.00,59.548
664.00,59.585
665.00,59.572
666.00,59.597
667.00,59.594
668.00,59.540
669.00,59.503
670.00,59.506
671.00,59.474
672.00,59.423
673.00,59.363
674.00,59.368
675.00,59.296
676.00,59.224
677.00,59.204
678.00,59.114
679.00,59.112
680.00,59.075
681.00,59.149
682.00,59.131
683.00,59.047
684.00,59.011
685.00,58.942
686.00,58.951
687.00,58.905
688.00,58.859
689.00,58.808
690.00,58.776
691.00,58.771
692.00,58.764
693.00,58.705
694.00,58.671
695.00,58.623
696.00,58.615
697.00,58.648
698.00,58.614
699.00,58.624
700.00,58.571
701.00,58.561
702.00,58.488
703.00,58.380
704.00,58.300
705.00,58.240
706.00,58.199
707.00,58.214
708.00,58.195
709.00,58.171
710.00,58.146
711.00,58.082
712.00,58.076
713.00,57.981
714.00,58.015
715.00,57.952
716.00,57.976
717.00,57.940
718.00,57.941
719.00,57.895
720.00,57.881
721.00,57.855
722.00,57.891
723.00,57.893
724.00,57.854
725.00,57.770
726.00,57.707
727.00,57.708
728.00,57.630
729.00,57.538
730.00,57.492
731.00,57.518
732.00,57.550
733.00,57.451
734.00,57.349
735.00,57.286
736.00,57.224
737.00,57.214
738.00,57.107
739.00,57.130
740.00,57.136
741.00,57.231
742.00,57.312
743.00,57.250
744.00,57.216
745.00,57.149
746.00,57.067
747.00,56.982
748.00,56.936
749.00,56.884
750.00,56.878
751.00,56.763
752.00,56.775
753.00,56.642
754.00,56.571
755.00,56.702
756.00,56.703
757.00,56.706
758.00,56.544
759.00,56.472
760.00,56.385
761.00,56.245
762.00,56.176
763.00,56.210
764.00,56.332
765.00,56.300
766.00,56.242
767.00,56.025
768.00,55.935
769.00,55.863
770.00,55.785
771.00,55.792
772.00,55.708
773.00,55.710
774.00,55.684
775.00,55.620
776.00,55.527
777.00,55.510
778.00,55.543
779.00,55.717
780.00,55.765
781.00,55.736
782.00,55.609
783.00,55.551
784.00,55.541
785.00,55.472
786.00,55.309
787.00,55.201
788.00,55.207
789.00,55.199
790.00,55.215
791.00,55.197
792.00,55.213
793.00,55.169
794.00,55.023
795.00,54.948
796.00,54.782
797.00,54.808
798.00,54.714
799.00,54.896
800.00,54.991
801.00,55.260
802.00,55.332
803.00,55.260
804.00,55.182
805.00,55.047
806.00,55.022
807.00,54.952
808.00,55.005
809.00,54.996
810.00,55.010
811.00,54.860
812.00,54.786
813.00,54.443
814.00,54.552
815.00,54.384
816.00,54.585
817.00,54.460
818.00,54.532
819.00,54.347
820.00,54.341
821.00,54.218
822.00,54.182
823.00,54.203
824.00,54.296
825.00,54.418
826.00,54.379
827.00,54.549
828.00,54.591
829.00,54.513
830.00,54.175
831.00,53.951
832.00,53.805
833.00,53.800
834.00,53.772
835.00,53.747
836.00,53.607
837.00,53.602
838.00,53.596
839.00,53.671
840.00,53.691
841.00,53.673
842.00,53.591
843.00,53.525
844.00,53.446
845.00,53.555
846.00,53.440
847.00,53.428
848.00,53.293
849.00,53.329
850.00,53.272
851.00,53.332
852.00,53.331
853.00,53.354
854.00,53.261
855.00,53.226
856.00,53.177
857.00,53.140
858.00,53.099
859.00,53.149
860.00,53.111
861.00,53.077
862.00,53.009
863.00,52.931
864.00,52.967
865.00,52.884
866.00,52.867
867.00,52.790
868.00,52.731
869.00,52.766
870.00,52.658
871.00,52.702
872.00,52.689
873.00,52.719
874.00,52.681
875.00,52.617
876.00,52.563
877.00,52.553
878.00,52.587
879.00,52.638
880.00,52.595
881.00,52.571
882.00,52.657
883.00,52.668
884.00,52.681
885.00,52.557
886.00,52.523
887.00,52.474
888.00,52.518
889.00,52.541
890.00,52.477
891.00,52.423
892.00,52.404
893.00,52.419
894.00,52.419
895.00,52.391
896.00,52.429
897.00,52.361
898.00,52.316
899.00,52.354
900.00,52.338
901.00,52.289
902.00,52.138
903.00,52.140
904.00,52.182
905.00,52.177
906.00,52.152
907.00,52.129
908.00,52.154
909.00,52.174
910.00,52.190
911.00,52.205
912.00,52.154
913.00,52.131
914.00,52.135
915.00,52.095
916.00,52.082
917.00,52.052
918.00,52.047
919.00,52.001
920.00,52.035
921.00,52.038
922.00,51.997
923.00,51.954
924.00,51.899
925.00,51.933
926.00,51.914
927.00,51.895
928.00,51.922
929.00,51.889
930.00,51.920
931.00,51.914
932.00,51.890
933.00,51.959
934.00,51.884
935.00,51.904
936.00,51.841
937.00,51.846
938.00,51.835
939.00,51.827
940.00,51.844
941.00,51.858
942.00,51.864
943.00,51.876
944.00,51.801
945.00,51.831
946.00,51.821
947.00,51.877
948.00,51.869
949.00,51.824
950.00,51.806
951.00,51.759
952.00,51.799
953.00,51.805
954.00,51.819
955.00,51.835
956.00,51.760
957.00,51.796
958.00,51.756
959.00,51.756
960.00,51.710
961.00,51.664
962.00,51.711
963.00,51.668
964.00,51.668
965.00,51.668
966.00,51.658
967.00,51.665
968.00,51.605
969.00,51.624
970.00,51.639
971.00,51.656
972.00,51.652
973.00,51.605
974.00,51.574
975.00,51.590
976.00,51.590
977.00,51.616
978.00,51.533
979.00,51.524
980.00,51.478
981.00,51.470
982.00,51.484
983.00,51.441
984.00,51.457
985.00,51.432
986.00,51.451
987.00,51.448
988.00,51.396
989.00,51.397
990.00,51.381
991.00,51.400
992.00,51.402
993.00,51.372
994.00,51.342
995.00,51.312
996.00,51.291
997.00,51.301
998.00,51.248
999.00,51.261
1000.00,51.247
1001.00,51.294
1002.00,51.275
1003.00,51.232
1004.00,51.263
1005.00,51.237
1006.00,51.255
1007.00,51.198
1008.00,51.187
1009.00,51.206
1010.00,51.155
1011.00,51.169
1012.00,51.117
1013.00,51.128
1014.00,51.105
1015.00,51.069
1016.00,51.071
1017.00,51.042
1018.00,51.053
1019.00,51.068
1020.00,51.067
1021.00,51.076
1022.00,51.029
1023.00,51.086
1024.00,51.078
1025.00,51.059
1026.00,51.025
1027.00,50.982
1028.00,50.985
1029.00,50.959
1030.00,50.939
1031.00,50.961
1032.00,50.935
1033.00,50.973
1034.00,50.925
1035.00,50.887
1036.00,50.900
1037.00,50.891
1038.00,50.945
1039.00,50.901
1040.00,50.911
1041.00,50.888
1042.00,50.849
1043.00,50.847
1044.00,50.822
1045.00,50.860
1046.00,50.876
1047.00,50.870
1048.00,50.886
1049.00,50.831
1050.00,50.852
1051.00,50.856
1052.00,50.864
1053.00,50.875
1054.00,50.834
1055.00,50.875
1056.00,50.847
1057.00,50.832
1058.00,50.790
1059.00,50.749
1060.00,50.741
1061.00,50.737
1062.00,50.756
1063.00,50.770
1064.00,50.757
1065.00,50.765
1066.00,50.717
1067.00,50.704
1068.00,50.707
1069.00,50.693
1070.00,50.730
1071.00,50.701
1072.00,50.759
1073.00,50.744
1074.00,50.751
1075.00,50.750
1076.00,50.692
1077.00,50.663
1078.00,50.621
1079.00,50.617
1080.00,50.668
1081.00,50.663
1082.00,50.704
1083.00,50.659
1084.00,50.672
1085.00,50.679
1086.00,50.671
1087.00,50.638
1088.00,50.579
1089.00,50.587
1090.00,50.631
1091.00,50.629
1092.00,50.657
1093.00,50.598
1094.00,50.618
1095.00,50.595
1096.00,50.625
1097.00,50.639
1098.00,50.619
1099.00,50.606
1100.00,50.588
1101.00,50.544
1102.00,50.530
1103.00,50.493
1104.00,50.537
1105.00,50.553
1106.00,50.552
1107.00,50.546
1108.00,50.509
1109.00,50.529
1110.00,50.485
1111.00,50.478
1112.00,50.468
1113.00,50.483
1114.00,50.483
1115.00,50.420
1116.00,50.397
1117.00,50.375
1118.00,50.359
1119.00,50.330
1120.00,50.277
1121.00,50.295
1122.00,50.241
1123.00,50.199
1124.00,50.164
1125.00,50.129
1126.00,50.079
1127.00,49.938
1128.00,49.832
1129.00,49.752
1130.00,49.663
1131.00,49.567
1132.00,49.418
1133.00,49.314
1134.00,49.221
1135.00,49.111
1136.00,49.003
1137.00,48.838
1138.00,48.753
1139.00,48.689
1140.00,48.642
1141.00,48.603
1142.00,48.531
1143.00,48.569
1144.00,48.619
1145.00,48.667
1146.00,48.709
1147.00,48.680
1148.00,48.785
1149.00,48.864
1150.00,49.006
1151.00,49.114
1152.00,49.186
1153.00,49.309
1154.00,49.388
1155.00,49.476
1156.00,49.553
1157.00,49.576
1158.00,49.647
1159.00,49.664
1160.00,49.715
1161.00,49.738
1162.00,49.718
1163.00,49.741
1164.00,49.716
1165.00,49.762
1166.00,49.778
1167.00,49.773
1168.00,49.773
1169.00,49.721
1170.00,49.769
1171.00,49.741
1172.00,49.760
1173.00,49.730
1174.00,49.720
1175.00,49.713
1176.00,49.703
1177.00,49.713
1178.00,49.703
1179.00,49.640
1180.00,49.615
1181.00,49.575
1182.00,49.561
1183.00,49.515
1184.00,49.459
1185.00,49.446
1186.00,49.390
1187.00,49.396
1188.00,49.342
1189.00,49.301
1190.00,49.285
1191.00,49.268
1192.00,49.297
1193.00,49.319
1194.00,49.332
1195.00,49.362
1196.00,49.320
1197.00,49.379
1198.00,49.413
1199.00,49.447
1200.00,49.474
1201.00,49.431
1202.00,49.453
1203.00,49.428
1204.00,49.485
1205.00,49.574
1206.00,49.636
1207.00,49.695
1208.00,49.685
1209.00,49.743
1210.00,49.766
1211.00,49.791
1212.00,49.844
1213.00,49.866
1214.00,49.938
1215.00,49.949
1216.00,49.981
1217.00,49.979
1218.00,49.964
1219.00,50.015
1220.00,50.052
1221.00,50.084
1222.00,50.104
1223.00,50.088
1224.00,50.171
1225.00,50.184
1226.00,50.224
1227.00,50.195
1228.00,50.196
1229.00,50.244
1230.00,50.265
1231.00,50.294
1232.00,50.289
1233.00,50.275
1234.00,50.334
1235.00,50.328
1236.00,50.389
1237.00,50.363
1238.00,50.390
1239.00,50.390
1240.00,50.381
1241.00,50.397
1242.00,50.380
1243.00,50.349
1244.00,50.340
1245.00,50.297
1246.00,50.339
1247.00,50.336
1248.00,50.366
1249.00,50.373
1250.00,50.333
1251.00,50.365
1252.00,50.341
1253.00,50.384
1254.00,50.380
1255.00,50.379
1256.00,50.418
1257.00,50.373
1258.00,50.386
1259.00,50.372
1260.00,50.397
1261.00,50.450
1262.00,50.390
1263.00,50.402
1264.00,50.374
1265.00,50.417
1266.00,50.425
1267.00,50.377
1268.00,50.380
1269.00,50.375
1270.00,50.385
1271.00,50.434
1272.00,50.397
1273.00,50.443
1274.00,50.402
1275.00,50.424
1276.00,50.441
1277.00,50.467
1278.00,50.530
1279.00,50.499
1280.00,50.519
1281.00,50.513
1282.00,50.558
1283.00,50.573
1284.00,50.554
1285.00,50.574
1286.00,50.563
1287.00,50.532
1288.00,50.533
1289.00,50.488
1290.00,50.506
1291.00,50.455
1292.00,50.489
1293.00,50.511
1294.00,50.506
1295.00,50.613
1296.00,50.709
1297.00,50.663
1298.00,50.574
1299.00,50.457
1300.00,50.519
1301.00,50.519
1302.00,50.550
1303.00,50.739
1304.00,50.709
1305.00,50.723
1306.00,50.697
1307.00,50.831
1308.00,50.813
1309.00,50.728
1310.00,50.703
1311.00,50.730
1312.00,50.724
1313.00,50.581
1314.00,50.717
1315.00,50.751
1316.00,50.819
1317.00,50.693
1318.00,50.655
1319.00,50.615
1320.00,50.686
1321.00,50.650
1322.00,50.699
1323.00,50.744
1324.00,50.818
1325.00,50.840
1326.00,50.695
1327.00,50.621
1328.00,50.607
1329.00,50.754
1330.00,50.766
1331.00,50.834
1332.00,50.716
1333.00,50.754
1334.00,50.801
1335.00,50.734
1336.00,50.763
1337.00,50.709
1338.00,50.739
1339.00,50.816
1340.00,50.820
1341.00,50.871
1342.00,50.744
1343.00,50.745
1344.00,50.769
1345.00,50.931
1346.00,50.803
1347.00,50.799
1348.00,50.688
1349.00,50.592
1350.00,50.666
1351.00,50.525
1352.00,50.614
1353.00,50.446
1354.00,50.562
1355.00,50.666
1356.00,50.706
1357.00,50.629
1358.00,50.464
1359.00,50.480
1360.00,50.396
1361.00,50.521
1362.00,50.425
1363.00,50.419
1364.00,50.414
1365.00,50.228
1366.00,50.296
1367.00,50.253
1368.00,50.455
1369.00,50.464
1370.00,50.441
1371.00,50.522
1372.00,50.484
1373.00,50.450
1374.00,50.436
1375.00,50.629
1376.00,50.482
1377.00,50.365
1378.00,50.287
1379.00,50.367
1380.00,50.448
1381.00,50.335
1382.00,50.402
1383.00,50.317
1384.00,50.216
1385.00,50.191
1386.00,50.388
1387.00,50.393
1388.00,50.387
1389.00,50.259
1390.00,50.458
1391.00,50.621
1392.00,50.673
1393.00,50.656
1394.00,50.680
1395.00,50.618
1396.00,50.534
1397.00,50.396
1398.00,50.565
1399.00,50.579
1400.00,50.598
