# Refractive index of barium sulfate (BaSO4) extrated from:
# Tong, Z., J. Peoples, X. Li, X. Yang, H. Bao, and X. Ruan. “Electronic and Phononic 
# Origins of BaSO4 as an Ultra-Efficient Radiative Cooling Paint Pigment.” Materials 
# Today Physics 24 (2022): 100658
#
# First column:		Wavelength (in um)
# Second column:	refractive index
# Third column:		extinction coefficient
#
0.257611	1.671584	0.00000e+00
0.272024	1.670520	1.21477e-10
0.287242	1.670520	2.49750e-10
0.303313	1.670520	3.85200e-10
0.320282	1.670520	5.28228e-10
0.338200	1.670520	6.79257e-10
0.357121	1.669456	8.38736e-10
0.377101	1.658818	1.00714e-09
0.398198	1.658818	1.18496e-09
0.420476	1.658818	1.37273e-09
0.444000	1.650307	1.57101e-09
0.468840	1.647115	1.78038e-09
0.495070	1.647115	2.00146e-09
0.522767	1.647115	2.23491e-09
0.552014	1.647115	2.48142e-09
0.582897	1.647115	2.74172e-09
0.615508	1.647115	3.01659e-09
0.649943	1.647115	3.30683e-09
0.686305	1.647115	3.61332e-09
0.724701	1.647115	3.93694e-09
0.765246	1.648179	4.27868e-09
0.808058	1.649243	4.63953e-09
0.853266	1.652435	5.02057e-09
0.901003	1.652435	5.42293e-09
0.951411	1.647115	5.84780e-09
1.004638	1.648179	6.29644e-09
1.060844	1.651371	6.77018e-09
1.120194	1.649243	7.27042e-09
1.182865	1.652435	7.79865e-09
1.249042	1.649243	8.35643e-09
1.318921	1.647115	8.94542e-09
1.392710	1.647115	9.56736e-09
1.470626	1.647115	1.02241e-08
1.552902	1.647115	1.09176e-08
1.639781	1.647115	1.16498e-08
1.674469	1.647115	1.19422e-08
1.731521	1.647115	1.65598e-08
1.768151	1.647115	1.95244e-08
1.828393	1.647115	2.70190e-08
1.862459	1.647115	3.12570e-08
1.930684	1.647115	4.44104e-08
1.961797	1.647115	5.04087e-08
2.038699	1.647115	7.33770e-08
2.066434	1.647115	8.16606e-08
2.152756	1.647115	1.21649e-07
2.171273	1.647115	1.30226e-07
2.273195	1.647115	2.02116e-07
2.287082	1.647115	2.11912e-07
2.400372	1.647115	3.31661e-07
2.415037	1.647115	3.47163e-07
2.534663	1.647115	5.45876e-07
2.543849	1.647115	5.61134e-07
2.676468	1.647115	9.03164e-07
2.679530	1.647115	9.11062e-07
2.822449	1.647115	1.48253e-06
2.826206	1.647115	1.50520e-06
2.972991	1.647115	2.39090e-06
2.984322	1.647115	2.46778e-06
3.114000	1.647115	3.34757e-06
3.127977	1.647115	2.31861e-02
6.560559	1.505975	5.71666e+00
6.564481	1.505814	5.71936e+00
6.678592	1.502045	5.79778e+00
6.682410	1.501919	5.80062e+00
6.798749	1.490595	5.88702e+00
6.802458	1.490234	5.88972e+00
6.904143	1.469786	5.96391e+00
6.921068	1.467934	5.97625e+00
7.045588	1.454310	6.06346e+00
7.091022	1.449338	6.09690e+00
7.172347	1.443122	6.15675e+00
7.218410	1.439601	6.18788e+00
7.301388	1.442596	6.24396e+00
7.326313	1.443496	6.26128e+00
7.432750	1.421546	6.33522e+00
7.524620	1.402600	6.39653e+00
7.566475	1.391144	6.42446e+00
7.659797	1.365599	6.48563e+00
7.702606	1.355906	6.51369e+00
7.797403	1.334441	6.57335e+00
7.841187	1.323484	6.60090e+00
7.937481	1.299387	6.66458e+00
7.982260	1.284098	6.69419e+00
8.080076	1.250702	6.77707e+00
8.125872	1.231655	6.81587e+00
8.225232	1.190332	6.91408e+00
8.278216	1.158908	6.96646e+00
8.372995	1.102698	7.09936e+00
8.383438	1.093458	7.11400e+00
8.468578	1.018127	7.28070e+00
8.510776	0.980789	7.38450e+00
8.538496	0.942856	7.45268e+00
8.585145	0.879019	7.61412e+00
8.623501	0.826529	7.79746e+00
8.625191	0.824217	7.80371e+00
8.687811	0.778154	8.03575e+00
8.739603	0.740056	8.24444e+00
8.752268	0.730741	8.27373e+00
8.806234	0.925483	8.39854e+00
8.806647	0.925796	8.39950e+00
8.901248	0.997415	8.54175e+00
8.956458	1.039212	8.59057e+00
9.043459	1.161982	8.66749e+00
9.058028	1.182542	8.66749e+00
9.128187	1.324314	8.66749e+00
9.206163	1.407451	8.66749e+00
9.261889	1.466865	8.66613e+00
9.371794	1.529549	8.66344e+00
9.418954	1.556447	8.66352e+00
9.509765	1.709903	8.66367e+00
9.546484	1.805169	8.66373e+00
9.569213	1.864139	8.63132e+00
9.654784	2.014090	8.50932e+00
9.664748	2.010796	8.49511e+00
9.759585	1.979444	8.30389e+00
9.799107	1.966378	8.19366e+00
9.833062	1.905752	8.09896e+00
9.872075	1.836096	8.09299e+00
9.997585	1.731857	8.07378e+00
10.004791	1.725872	8.08072e+00
10.109628	1.786813	8.18177e+00
10.173735	1.824078	8.15779e+00
10.215334	1.814891	8.14223e+00
10.236607	1.810193	7.97187e+00
10.273179	1.802116	7.80638e+00
10.348472	1.785488	7.59986e+00
10.352114	1.784684	7.59000e+00
10.426199	1.723151	7.38931e+00
10.506861	1.656154	7.32730e+00
10.554801	1.624187	7.29044e+00
10.679755	1.540867	7.35262e+00
10.716792	1.515303	7.37105e+00
10.824825	1.440737	7.58045e+00
10.871614	1.408443	7.65345e+00
10.926405	1.383858	7.73893e+00
11.066919	1.320809	7.88684e+00
11.085271	1.316854	7.90616e+00
11.265733	1.277966	8.03518e+00
11.267954	1.277666	8.03677e+00
11.468118	1.250702	8.14089e+00
11.470680	1.250435	8.14223e+00
11.674139	1.229280	8.22420e+00
11.677054	1.228982	8.22538e+00
11.883862	1.207858	8.29325e+00
11.887140	1.207619	8.29433e+00
12.097351	1.192279	8.35214e+00
12.101006	1.191984	8.35314e+00
12.314677	1.174752	8.40689e+00
12.318719	1.174468	8.40790e+00
12.535906	1.159173	8.45759e+00
12.540350	1.158942	8.45860e+00
12.761110	1.147488	8.50623e+00
12.765968	1.147158	8.50728e+00
12.990359	1.131909	8.55285e+00
12.995645	1.131644	8.55392e+00
13.223727	1.120225	8.59349e+00
13.229455	1.119802	8.59448e+00
13.461287	1.102698	8.63992e+00
13.467471	1.102299	8.64113e+00
13.703115	1.087118	8.68452e+00
13.709769	1.086750	8.68575e+00
13.949287	1.073486	8.72907e+00
13.956427	1.072932	8.73036e+00
14.199882	1.054012	8.78149e+00
14.207522	1.053546	8.78309e+00
14.454978	1.038433	8.83610e+00
14.463135	1.037821	8.83785e+00
14.714658	1.018959	8.88882e+00
14.723346	1.018191	8.89058e+00
14.979002	0.995590	8.95517e+00
14.988239	0.995122	8.95751e+00
15.248095	0.981958	9.03177e+00
15.257898	0.981400	9.03457e+00
15.522023	0.966378	9.12629e+00
15.532409	0.967104	9.12989e+00
15.800871	0.985853	9.24484e+00
15.811858	0.992158	9.24955e+00
16.017938	1.110419	9.38340e+00
16.032309	1.118667	9.39365e+00
16.142794	1.398427	9.47241e+00
16.180477	1.665502	9.49927e+00
16.190769	1.847447	9.50661e+00
16.204503	2.273097	9.51640e+00
16.216373	2.317758	9.52486e+00
16.236593	2.393837	9.56035e+00
16.299201	4.145291	9.67023e+00
16.330014	5.007274	9.58994e+00
16.375274	6.766214	9.47201e+00
16.385930	6.625619	9.44424e+00
16.389409	6.579722	9.24607e+00
16.420054	6.175407	8.90153e+00
16.434700	5.982172	9.04877e+00
16.516306	4.905501	8.71414e+00
16.520105	4.855375	8.69357e+00
16.528278	5.034538	8.64933e+00
16.544964	4.637357	8.55899e+00
16.554458	4.411364	8.55104e+00
16.593805	4.247781	8.51810e+00
16.603657	4.070176	8.50986e+00
16.657238	3.852176	8.46500e+00
16.712635	3.664953	8.41862e+00
16.717370	3.648949	8.41752e+00
16.767053	3.485366	8.40601e+00
16.816884	3.324704	8.39446e+00
16.855149	3.203934	8.38559e+00
16.866863	3.166963	8.39145e+00
16.916990	3.032591	8.41653e+00
17.071082	2.858621	8.49362e+00
17.084608	2.840446	8.50038e+00
17.169871	2.725872	8.64266e+00
17.246470	3.406495	8.77048e+00
17.268375	3.299488	8.80703e+00
17.323410	3.030643	8.31018e+00
17.335098	3.221667	8.20467e+00
17.349133	3.499971	8.07796e+00
17.356456	3.421281	8.01185e+00
17.409302	2.853428	8.09793e+00
17.556297	2.915745	8.33735e+00
17.582057	2.790710	8.37931e+00
17.595415	2.725872	8.37463e+00
17.687029	2.588579	8.34249e+00
17.754953	2.530036	8.31867e+00
17.845193	2.452260	8.30893e+00
18.074389	2.341605	8.28419e+00
18.138842	2.310487	8.28982e+00
18.399572	2.206379	8.31258e+00
18.437324	2.191305	8.31883e+00
18.730606	2.103363	8.36734e+00
18.768545	2.091987	8.37373e+00
19.067595	2.021170	8.42413e+00
19.105716	2.012143	8.42920e+00
19.431260	1.956730	8.47251e+00
19.448944	1.953720	8.47678e+00
19.759871	1.910395	8.55189e+00
19.798339	1.905035	8.56001e+00
20.115378	1.865109	8.62693e+00
20.154010	1.860244	8.63559e+00
20.477282	1.830685	8.70806e+00
20.516070	1.827138	8.71638e+00
20.845696	1.804496	8.78715e+00
20.884635	1.801821	8.79641e+00
21.220739	1.794843	8.87638e+00
21.259821	1.794032	8.88760e+00
21.602529	1.820243	8.98590e+00
21.641747	1.823243	8.99797e+00
21.971775	1.906203	9.09958e+00
21.991188	1.924001	9.10556e+00
22.161677	2.080302	9.18537e+00
22.310144	2.302308	9.25488e+00
22.320407	2.344402	9.25969e+00
22.440572	2.837292	9.26274e+00
22.459607	3.048170	9.26322e+00
22.504084	3.209806	9.26435e+00
22.570965	3.690818	9.26604e+00
22.593303	3.873876	9.26661e+00
22.688243	4.058541	9.26902e+00
22.700832	4.083029	9.23953e+00
22.755770	4.246215	9.11083e+00
22.761542	4.263360	9.09797e+00
22.823499	4.189242	8.95994e+00
22.985538	3.995395	8.84778e+00
23.062140	3.936252	8.79476e+00
23.193377	3.834928	8.71610e+00
23.332977	3.793301	8.63244e+00
23.521791	3.737000	8.60013e+00
23.666201	3.778075	8.57542e+00
23.757812	3.804132	8.42818e+00
23.797617	3.815453	8.34256e+00
23.828523	3.787603	8.27608e+00
23.874091	3.746540	8.10398e+00
23.934984	3.691667	7.95970e+00
23.974825	3.655765	7.93766e+00
24.146185	3.476602	7.84288e+00
24.180114	3.450317	7.82411e+00
24.333208	3.331714	7.75257e+00
24.407021	3.301838	7.71807e+00
24.696948	3.184489	7.65281e+00
24.803978	3.149101	7.62872e+00
25.103346	3.050117	7.53099e+00
25.212743	3.024608	7.49527e+00
25.554320	2.944957	7.43266e+00
25.666354	2.924996	7.41212e+00
26.013396	2.863165	7.37707e+00
26.128127	2.845953	7.36548e+00
26.480718	2.793058	7.34266e+00
26.598208	2.779110	7.33506e+00
26.956436	2.736583	7.29649e+00
27.076746	2.724004	7.28354e+00
27.440701	2.685950	7.27657e+00
27.563894	2.675243	7.27421e+00
27.933664	2.643107	7.25909e+00
28.059806	2.633806	7.25393e+00
28.435484	2.606106	7.24488e+00
28.564641	2.597735	7.24177e+00
28.946319	2.573000	7.23273e+00
29.078558	2.565076	7.22960e+00
29.466330	2.541841	7.24162e+00
29.601721	2.536516	7.24582e+00
29.862461	2.526262	7.25180e+00
29.955715	2.526262	7.25393e+00
