# Refractive index of calcium carbonate (CaCO3) extrated from Palik's Handbook of 
# Optical Constant (vol. 3) 
#
# First column:		Wavelength (in um)
# Second column:	refractive index
# Third column:		extinction coefficient
#
0.108246	1.455142	7.42732e-01
0.111850	1.517339	7.44902e-01
0.114679	1.566170	7.80052e-01
0.116749	1.624413	8.05776e-01
0.119078	1.689912	7.38861e-01
0.121223	1.646770	6.77213e-01
0.124763	1.575559	5.88776e-01
0.125212	1.577571	5.77580e-01
0.129646	1.597473	6.13526e-01
0.130433	1.578897	6.19905e-01
0.133073	1.516586	6.03353e-01
0.135338	1.468380	5.89155e-01
0.137459	1.423231	6.59339e-01
0.139281	1.384437	7.76095e-01
0.139906	1.413115	8.16130e-01
0.142031	1.510614	9.61660e-01
0.142889	1.550002	1.00563e+00
0.144358	1.726255	1.08089e+00
0.145999	1.871799	1.16492e+00
0.146591	1.924282	1.17542e+00
0.148749	2.097099	1.21373e+00
0.150959	2.297208	1.25296e+00
0.151049	2.305339	1.24958e+00
0.157140	2.556728	1.02051e+00
0.157767	2.582600	9.45814e-01
0.158280	2.765983	8.84664e-01
0.158734	2.745465	8.30527e-01
0.160626	2.660046	6.86996e-01
0.161125	2.637512	5.70341e-01
0.162169	2.590367	4.28782e-01
0.162637	2.569216	3.30536e-01
0.163142	2.546393	2.74497e-01
0.163653	2.523313	2.29923e-01
0.164398	2.489679	1.89579e-01
0.164880	2.467905	1.31033e-01
0.165265	2.450535	1.55704e-01
0.166317	2.403035	1.12594e-01
0.166940	2.374878	9.06722e-02
0.167318	2.357808	7.24979e-02
0.167698	2.340639	5.81224e-02
0.167808	2.335683	5.70713e-02
0.168750	2.312116	4.80521e-02
0.170004	2.280713	3.30028e-02
0.170114	2.277985	4.10600e-02
0.171486	2.243636	2.50714e-02
0.172110	2.228016	1.51739e-02
0.172218	2.225307	1.87999e-02
0.172648	2.214569	1.26652e-02
0.172958	2.206798	5.10770e-03
0.173192	2.200956	6.26653e-03
0.173382	2.196180	1.02659e-02
0.173687	2.188553	8.15529e-03
0.174232	2.174921	3.67414e-03
0.176614	2.115302	3.00951e-03
0.177478	2.104995	2.76852e-03
0.184890	2.016547	4.02164e-03
0.187498	1.985428	3.52049e-03
0.188514	1.979999	3.32535e-03
0.189655	1.973900	2.70260e-03
0.190227	1.970839	2.17862e-03
0.190824	1.967650	1.82702e-03
0.191455	1.964277	1.62342e-03
0.192613	1.958084	9.91125e-08
0.204405	1.895050	9.90872e-08
0.221513	1.840502	9.90505e-08
0.240052	1.802009	9.90107e-08
0.260143	1.771794	9.89677e-08
0.281915	1.753505	9.89209e-08
0.305509	1.738742	9.88703e-08
0.331078	1.728748	9.88155e-08
0.358787	1.717491	9.87561e-08
0.388816	1.713535	9.86916e-08
0.421357	1.701069	9.86218e-08
0.448356	1.701069	9.85639e-08
0.498115	1.688371	9.84572e-08
0.555657	1.695058	9.83338e-08
0.561382	1.681710	9.83215e-08
0.657995	1.672547	9.81142e-08
0.713064	1.674477	9.79961e-08
0.772743	1.672547	9.78681e-08
0.837417	1.672547	9.77294e-08
0.907503	1.669978	9.75790e-08
0.983455	1.669978	9.74161e-08
1.005076	1.668800	9.73697e-08
1.065764	1.665492	9.73876e-08
1.154961	1.659104	9.74139e-08
1.251624	1.658466	9.74424e-08
1.356377	1.658466	9.74733e-08
1.469897	1.658466	9.75068e-08
1.592918	1.658466	9.75431e-08
1.726234	1.654011	9.75824e-08
1.870709	1.651470	9.76250e-08
2.027275	1.650201	9.76712e-08
2.133663	1.651470	9.77026e-08
2.561290	1.631285	9.78287e-08
2.775653	1.626903	9.78919e-08
3.007957	1.618795	9.79604e-08
3.259704	1.611347	9.80346e-08
3.532520	1.600855	9.81151e-08
3.828169	1.583113	9.82023e-08
4.148562	1.561962	9.82968e-08
4.474881	1.532364	9.83930e-08
4.495769	1.530470	9.83785e-08
4.872036	1.480715	9.81170e-08
5.279793	1.404233	9.78337e-08
5.638671	1.283045	9.75843e-08
5.649605	1.276860	9.75767e-08
5.848484	1.164368	1.10639e-02
5.960654	1.047922	1.67537e-02
6.104216	0.925116	2.40359e-02
6.200545	0.828292	2.89221e-02
6.227788	0.738193	3.03041e-02
6.268878	0.493996	3.23883e-02
6.295258	0.419413	3.37265e-02
6.310239	0.377060	2.83107e-02
6.313577	0.414149	2.71040e-02
6.314851	0.428314	3.06388e-02
6.318572	0.413266	4.09559e-02
6.337842	0.335323	7.03124e-02
6.337964	0.334828	6.94770e-02
6.340798	0.330314	5.01321e-02
6.361162	0.297871	5.47789e-02
6.371023	0.281945	5.70291e-02
6.415413	0.210253	8.90226e-02
6.417853	0.248417	9.07808e-02
6.418758	0.253044	9.14335e-02
6.421501	0.267055	9.64413e-02
6.428821	0.131945	1.09806e-01
6.430560	0.138360	1.12982e-01
6.443725	0.186918	1.44297e-01
6.444954	0.175677	1.47219e-01
6.452042	0.110793	1.62285e-01
6.459272	0.152333	1.77652e-01
6.463593	0.146441	1.86835e-01
6.466894	0.141939	2.22340e-01
6.471982	0.135000	2.90674e-01
6.502141	0.093871	4.02717e-01
6.517954	0.091096	4.61465e-01
6.524138	0.090012	3.77669e-01
6.527503	0.089421	1.28267e-01
6.557556	0.084148	6.13596e-01
6.575741	0.080957	7.74923e-01
6.597229	0.077187	8.72648e-01
6.655959	0.085822	1.13974e+00
6.748561	0.099437	1.78917e+00
6.774239	0.103213	1.92342e+00
6.823259	0.122514	2.17970e+00
6.849857	0.137908	2.31876e+00
6.871668	0.156776	2.43279e+00
6.893549	0.193766	2.54719e+00
6.928899	0.318670	2.73200e+00
6.939032	0.496718	2.78498e+00
6.952566	0.271992	2.85574e+00
6.961935	3.494199	2.90472e+00
6.979712	0.633662	2.99766e+00
6.984254	2.328263	3.02141e+00
6.985760	2.890309	3.08481e+00
7.005990	1.260009	3.93640e+00
7.027294	2.221883	4.83316e+00
7.033654	6.869259	5.10091e+00
7.046328	1.968159	5.63440e+00
7.082752	2.351687	7.16767e+00
7.181926	3.395948	1.54004e+00
7.192544	3.507746	7.29310e-01
7.193757	3.520526	2.06162e+00
7.194767	3.531151	2.58146e+00
7.196447	3.548849	1.28827e+00
7.207814	3.668534	1.03472e+00
7.208937	3.680356	8.83499e-01
7.216721	3.762316	4.03099e-01
7.218577	3.781861	7.64018e-01
7.232834	3.656598	3.53636e+00
7.235255	3.635336	5.85396e-01
7.244477	3.554314	4.88440e-01
7.250493	3.501455	3.45948e-01
7.253622	3.473969	2.43744e-01
7.264434	3.378978	2.29142e-01
7.291097	3.289477	1.93132e-01
7.312751	3.216791	1.53076e-01
7.353544	3.079860	2.93996e-01
7.377063	3.000913	1.19459e-01
7.384031	2.977526	1.00231e-01
7.427241	2.832483	7.69330e-02
7.440967	2.811695	6.95323e-02
7.447587	2.801668	8.31405e-02
7.500952	2.720847	5.43104e-02
7.547955	2.649662	4.48414e-02
7.647029	2.499614	3.68359e-02
7.664008	2.473899	3.45035e-02
7.700774	2.449771	2.94530e-02
7.772577	2.402648	2.42738e-02
7.875527	2.335086	1.91051e-02
7.985542	2.262886	1.49593e-02
8.007480	2.248489	1.45446e-02
8.150685	2.201783	1.18376e-02
8.277564	2.160402	9.63962e-03
8.511870	2.083984	8.02357e-03
8.551763	2.070973	7.70512e-03
8.676632	2.051784	6.70836e-03
8.904848	2.016714	5.57404e-03
9.204009	1.970742	4.73306e-03
9.267490	1.960987	4.62031e-03
9.650799	1.928401	3.93952e-03
10.043119	1.895050	3.36024e-03
10.278830	1.879357	3.01220e-03
10.883662	1.839088	2.96760e-03
11.157301	1.824217	2.94742e-03
11.794554	1.789586	3.04765e-03
11.959451	1.782451	3.07358e-03
12.457989	1.760877	3.92349e-03
12.846502	1.744064	4.72293e-03
12.881331	1.739434	4.79459e-03
13.077226	1.713393	5.69044e-03
13.130718	1.706282	6.59851e-03
13.233270	1.692649	7.78298e-03
13.341975	1.678198	1.05250e-02
13.361500	1.675603	9.30524e-03
13.415178	1.668467	1.26445e-02
13.470836	1.649878	1.61070e-02
13.479031	1.647141	1.27155e-02
13.581917	1.612779	2.10149e-02
13.657160	1.587649	5.88655e-02
13.672028	1.582684	2.67400e-02
13.739856	1.560030	3.08685e-02
13.767151	1.597906	3.25298e-02
13.808603	1.655429	4.28482e-02
13.873886	1.746022	1.33155e-01
13.881399	1.756448	1.35404e-01
14.024399	1.954282	1.78224e-01
14.057386	1.944171	1.88101e-01
14.066569	1.941356	2.34979e-01
14.330168	1.860561	9.98036e-02
14.462301	1.820061	3.04581e-02
14.486618	1.816025	1.76958e-02
14.621611	1.793621	1.20416e-02
14.665960	1.786261	9.75153e-03
14.926436	1.743032	7.85837e-03
14.995985	1.731489	7.78241e-03
15.760182	1.684045	6.94771e-03
15.914295	1.674477	7.02114e-03
16.771701	1.635035	7.42969e-03
17.246218	1.613206	8.33777e-03
17.402450	1.605465	8.63675e-03
18.123915	1.569716	1.02324e-02
18.689614	1.541685	1.16156e-02
18.875043	1.529471	1.20690e-02
19.443969	1.491993	1.43860e-02
20.102310	1.448626	1.68805e-02
20.253813	1.438646	1.76598e-02
20.707846	1.399248	1.99953e-02
21.363805	1.342329	2.40795e-02
21.630503	1.319186	2.60767e-02
21.975565	1.279557	2.86607e-02
22.406322	1.230086	3.33467e-02
22.599900	1.207855	3.58796e-02
22.897239	1.167931	3.97703e-02
23.355353	1.106420	4.72239e-02
23.417134	1.095088	4.82291e-02
23.772948	1.029828	5.69901e-02
23.960343	0.995457	6.23988e-02
24.134248	0.958703	6.74181e-02
24.402050	0.902104	7.46735e-02
24.498787	0.881121	7.72944e-02
24.889933	0.796277	9.22739e-02
24.924642	0.788748	9.57097e-02
25.066659	0.720824	1.09768e-01
25.107429	0.701325	1.12456e-01
25.402418	0.627648	1.31901e-01
25.455768	0.614323	1.39683e-01
25.603494	0.550675	1.61229e-01
25.682631	0.516579	1.72965e-01
25.870977	0.448227	2.00897e-01
25.873749	0.447369	2.01308e-01
26.041669	0.395389	2.40629e-01
26.059116	0.391822	2.44715e-01
26.265043	0.349725	2.97784e-01
26.309431	0.340651	3.11854e-01
26.452155	0.302662	3.57094e-01
26.463672	0.299597	3.60217e-01
26.638275	0.269389	4.07568e-01
26.677654	0.268251	4.18247e-01
26.737790	0.266514	5.28810e-01
27.110165	0.255754	6.95386e-01
27.508049	0.244256	8.85404e-01
27.672772	0.239497	9.52853e-01
27.956656	0.225540	1.06909e+00
27.968958	0.225908	1.07413e+00
28.582409	0.244255	1.29114e+00
29.231140	0.263656	1.56122e+00
29.292685	0.265497	1.59357e+00
29.615506	0.299759	1.76327e+00
29.895646	0.326707	1.91053e+00
30.106420	0.346982	2.02329e+00
30.557588	0.410311	2.26466e+00
30.595511	0.426071	2.28495e+00
30.717490	0.476763	2.34990e+00
31.056013	0.542868	2.53016e+00
31.283765	0.598765	2.65144e+00
31.455674	0.642021	2.74298e+00
31.496103	0.680586	2.76451e+00
31.562567	0.743986	2.81947e+00
31.628528	0.848509	2.87402e+00
31.860479	1.032968	3.06585e+00
32.152810	1.274742	3.30761e+00
32.388606	1.439856	3.50261e+00
32.498669	1.679971	3.59364e+00
32.566587	1.955719	3.64980e+00
32.737001	2.279938	3.79074e+00
32.901438	2.683821	3.92673e+00
33.045998	3.073005	4.04628e+00
33.062870	3.080998	4.06024e+00
33.079251	3.088759	3.27913e+00
34.081391	3.563532	2.56520e+00
34.119220	3.807037	2.53825e+00
34.239870	4.583660	2.26585e+00
34.250594	4.097434	2.24163e+00
34.346288	4.060202	2.02557e+00
34.823275	3.874615	1.54308e+00
34.928863	3.833533	1.24917e+00
35.290597	3.692789	1.00448e+00
35.520397	3.603378	7.63583e-01
36.021682	3.408338	6.25651e-01
36.096754	3.379338	6.04994e-01
36.522993	3.214684	4.82683e-01
36.806563	3.105143	4.58577e-01
37.671046	2.819764	3.85089e-01
37.691076	2.813151	3.84585e-01
38.470144	2.523330	3.65009e-01
39.201182	2.354188	3.46640e-01
39.380246	2.312758	3.59034e-01
39.814236	2.112671	3.89073e-01
40.287130	2.070085	4.21804e-01
40.755211	2.027933	5.19046e-01
41.383823	1.971324	6.62434e-01
41.547930	1.956546	7.71943e-01
41.638798	1.884532	8.32578e-01
41.776243	1.775604	8.92083e-01
42.076205	1.859050	1.02195e+00
42.861153	2.077412	1.42465e+00
43.462847	2.244796	1.79520e+00
43.606209	2.383530	1.88349e+00
43.813587	2.584214	1.75547e+00
44.102661	2.899682	1.57701e+00
44.264081	3.270287	1.47736e+00
44.651752	3.408242	1.23803e+00
45.576893	3.737461	1.46505e+00
45.692659	3.719701	1.49346e+00
46.188879	3.643576	1.15690e+00
46.553490	3.587641	9.27624e-01
47.201816	3.488180	7.15961e-01
47.518980	3.439524	5.83899e-01
48.015681	3.363325	4.85032e-01
48.411283	3.302635	4.02275e-01
48.497336	3.289433	3.88153e-01
48.811414	3.248136	3.36609e-01
49.276708	3.186955	2.62837e-01
49.859177	3.110367	2.10557e-01
50.856261	2.979263	1.68364e-01
50.926319	2.973755	1.65400e-01
52.025750	2.887316	1.38223e-01
53.537754	2.768440	1.15280e-01
54.114993	2.723057	1.09599e-01
55.298056	2.662454	9.79562e-02
58.430205	2.502009	8.28100e-02
58.590880	2.494789	8.20330e-02
63.089518	2.292640	7.98636e-02
63.481026	2.274246	7.96748e-02
67.132123	2.102707	9.21340e-02
67.574089	2.077093	9.36422e-02
70.121942	1.929434	1.12367e-01
70.397450	1.913467	1.15091e-01
72.180928	1.780912	1.32726e-01
73.016918	1.718779	1.50727e-01
73.387227	1.681961	1.58700e-01
74.908328	1.530728	1.95847e-01
74.949057	1.526145	1.96841e-01
76.151037	1.390885	2.40678e-01
76.289257	1.375331	2.47322e-01
76.792600	1.234439	2.71517e-01
77.317777	1.182263	2.96761e-01
77.980018	1.116469	3.34098e-01
78.494516	1.004074	3.63105e-01
78.560248	0.997546	3.66811e-01
79.183591	0.935634	4.51257e-01
79.708250	0.883524	5.34055e-01
79.747298	0.881769	5.40217e-01
80.654424	0.841016	6.12377e-01
80.991780	0.825860	7.32683e-01
81.624632	0.797428	8.65285e-01
82.147282	0.773948	9.93820e-01
82.262492	0.769869	1.02215e+00
82.901598	0.747245	1.18904e+00
83.735282	0.717733	1.42065e+00
84.310196	0.697381	1.63417e+00
84.517689	0.709414	1.71123e+00
86.059754	0.798840	2.07981e+00
87.502290	0.882493	2.52874e+00
87.513765	0.883159	2.53181e+00
88.293692	1.011096	2.74070e+00
89.006213	1.131250	2.93152e+00
89.355021	1.187075	3.02494e+00
89.921380	1.277718	3.08238e+00
90.580827	1.453232	3.14925e+00
90.912361	1.716318	3.18287e+00
91.378549	2.019002	3.23015e+00
91.579075	2.336670	3.25048e+00
92.419347	2.721043	3.33570e+00
93.072821	3.390273	3.40197e+00
93.571163	3.807218	3.45250e+00
93.722763	3.934056	3.63271e+00
93.951313	3.022757	3.90438e+00
94.195563	3.356409	4.19472e+00
94.986705	4.437131	3.96913e+00
97.272183	4.786796	3.31743e+00
97.559061	4.830686	2.61100e+00
97.858480	4.876496	2.14042e+00
98.072236	4.909199	2.06894e+00
98.884497	5.084109	1.79731e+00
99.479125	5.212155	1.47985e+00
99.815050	5.284492	1.40570e+00
100.593413	5.182255	1.23389e+00
101.566234	5.054475	1.00953e+00
102.513688	4.930027	8.33196e-01
103.846762	4.754928	6.84675e-01
104.476316	4.672236	5.73171e-01
105.602910	4.524258	4.87808e-01
105.944728	4.492451	4.61908e-01
108.139371	4.288235	3.69781e-01
109.743240	4.138992	3.01673e-01
109.933262	4.121311	2.94402e-01
110.899130	4.072381	2.57445e-01
113.091603	3.961314	2.18242e-01
115.079785	3.860595	1.87485e-01
116.977488	3.764461	1.67662e-01
118.247249	3.732881	1.54398e-01
122.120341	3.636554	1.25876e-01
125.671503	3.548234	1.05561e-01
126.767741	3.520970	1.01539e-01
129.806466	3.477002	9.03906e-02
134.560920	3.408208	7.61329e-02
137.377374	3.367456	6.96751e-02
139.996331	3.343661	6.36701e-02
146.725264	3.282525	5.41855e-02
148.874964	3.262994	5.19454e-02
154.340901	3.234133	4.62495e-02
161.334828	3.197206	4.11866e-02
163.541919	3.188641	3.95889e-02
174.837501	3.144806	3.36911e-02
175.192348	3.144106	3.35058e-02
188.360191	3.118125	2.84422e-02
189.470260	3.115934	2.81379e-02
203.263044	3.088989	2.43565e-02
205.327685	3.084956	2.39701e-02
220.156897	3.058489	2.11946e-02
222.512274	3.054285	2.08277e-02
238.451124	3.033273	1.83452e-02
241.135100	3.029735	1.80198e-02
258.268562	3.005141	1.59424e-02
261.316536	3.000766	1.56952e-02
279.753238	2.997852	1.42000e-02
283.187026	2.997309	1.40203e-02
303.048264	2.987675	1.29808e-02
306.887933	2.985812	1.28197e-02
328.287556	2.974366	1.19217e-02
332.572452	2.972075	1.17206e-02
355.599010	2.972075	1.06399e-02
360.406598	2.972075	1.04386e-02
385.171313	2.962527	9.40161e-03
392.551014	2.959682	9.18179e-03
417.223291	2.995734	8.44687e-03
422.914974	3.004051	8.33059e-03
451.968086	2.966447	7.73707e-03
456.881324	2.960087	7.64788e-03
489.599599	2.949476	7.05395e-03
497.071168	2.947053	6.93273e-03
530.355037	2.947959	6.39272e-03
538.672784	2.948186	6.28714e-03
574.514284	2.951506	5.83219e-03
583.756184	2.952362	5.73339e-03
622.350386	2.929398	5.32080e-03
628.547308	2.925711	5.27085e-03
674.189256	2.932844	4.90298e-03
685.558334	2.934621	4.85607e-03
730.417434	2.934621	4.67095e-03
742.935096	2.934621	4.62981e-03
791.345935	2.934621	4.47069e-03
805.113919	2.934621	4.43250e-03
857.361874	2.935496	4.28758e-03
872.496704	2.935749	4.24868e-03
928.879571	2.920088	4.10376e-03
950.907754	2.913969	4.05464e-03
977.469647	2.913969	3.99542e-03
