# Refractive index of calcium carbonate (MgO) extrated from Palik's Handbook of Op
# tical Constant (vol. 2) 
#
# First column:		Wavelength (in um)
# Second column:	refractive index
# Third column:		extinction coefficient
#
0.018120	1.215179	1.28150e-01
0.018242	1.216366	1.29212e-01
0.019527	1.228843	1.05649e-01
0.020731	1.240538	1.82381e-01
0.021141	1.244514	1.78530e-01
0.022630	1.229175	1.64525e-01
0.023217	1.223122	1.35243e-01
0.024889	1.205901	1.48134e-01
0.029169	1.186392	1.81146e-01
0.034186	1.163528	2.37943e-01
0.035852	1.166924	2.56810e-01
0.038131	1.171569	2.39645e-01
0.041282	1.093243	2.15911e-01
0.045101	0.998324	2.61920e-01
0.045558	0.986971	2.82921e-01
0.047312	0.949486	3.63584e-01
0.050642	0.878338	4.86319e-01
0.051211	0.866181	5.06694e-01
0.053393	0.808070	5.84834e-01
0.056083	0.736425	7.82918e-01
0.056858	0.918890	8.40031e-01
0.057117	0.933020	8.59073e-01
0.060024	1.091853	1.07659e+00
0.062102	1.160447	1.23205e+00
0.063527	1.207491	1.25437e+00
0.069046	1.388756	1.34083e+00
0.069561	1.422355	1.34889e+00
0.071150	1.526141	1.12089e+00
0.072790	1.633215	1.05664e+00
0.075309	1.522975	9.57918e-01
0.077037	1.447370	9.95635e-01
0.082462	1.422783	1.11406e+00
0.083403	1.418520	1.13255e+00
0.088270	1.282672	1.22822e+00
0.089680	1.650774	1.25594e+00
0.092367	1.837071	1.30876e+00
0.095564	2.058728	1.19170e+00
0.099217	1.946119	1.05797e+00
0.107411	1.693505	1.37696e+00
0.110748	1.894974	1.50684e+00
0.113679	2.071967	1.42862e+00
0.119900	2.394300	1.26262e+00
0.132786	2.467712	9.18746e-01
0.135705	2.476744	8.40843e-01
0.148206	2.515419	7.11782e-01
0.152148	2.527614	9.01771e-01
0.152955	2.530111	9.48628e-01
0.157414	2.898987	1.20749e+00
0.159210	3.043586	7.01127e-01
0.159720	3.084685	3.40786e-01
0.160412	3.140345	1.64102e-01
0.162644	3.320080	9.18376e-03
0.162863	3.337752	8.94632e-03
0.164622	3.219241	7.04312e-03
0.165120	3.185664	5.16398e-04
0.166409	3.098857	3.20723e-04
0.167129	3.050338	1.84995e-04
0.168500	2.957946	1.71174e-04
0.172258	2.808974	1.33302e-04
0.176208	2.652385	9.34653e-05
0.176322	2.647881	9.30892e-05
0.183547	2.574935	6.91698e-05
0.193664	2.472799	4.90554e-05
0.201375	2.394954	3.89018e-05
0.209816	2.309745	3.07027e-05
0.211248	2.307076	2.93118e-05
0.226115	2.279370	1.98559e-05
0.234467	2.263804	1.50138e-05
0.287972	2.164092	9.49055e-06
0.342638	2.138062	3.84748e-06
0.355832	2.131779	2.70833e-06
0.363991	2.127894	1.86470e-06
0.382798	2.118939	1.29663e-06
0.395541	2.112871	1.19857e-06
0.428436	2.105419	9.45434e-07
0.470626	2.095861	6.88741e-07
0.494694	2.090408	4.89139e-07
0.507569	2.087492	4.18468e-07
0.543291	2.079399	3.57090e-07
0.702454	2.085138	8.36086e-08
0.746232	2.086717	8.34087e-08
0.964848	2.068008	8.24099e-08
1.024978	2.062862	8.21855e-08
1.325257	2.061829	8.10645e-08
1.407847	2.061545	8.09667e-08
1.820292	2.058450	8.04787e-08
1.933733	2.057599	8.04188e-08
2.500241	2.036605	8.01196e-08
2.656057	2.030831	8.01742e-08
3.294394	2.015894	8.03977e-08
3.648197	2.007616	1.48344e-07
3.750697	2.004986	1.68029e-07
3.904951	2.001029	2.49407e-07
4.046575	1.997396	3.82336e-07
4.142044	1.994947	5.66764e-07
4.282084	1.991355	7.89535e-07
4.406832	1.988155	1.09954e-06
4.535214	1.984862	1.65705e-06
4.646222	1.982014	2.23770e-06
4.752759	1.979281	3.27453e-06
4.957135	1.974039	5.42749e-06
5.010940	1.972659	6.37258e-06
5.125840	1.966700	8.39080e-06
5.291138	1.958127	1.24271e-05
5.519858	1.946265	1.84052e-05
5.654967	1.939259	2.68364e-05
5.863856	1.928425	3.70165e-05
6.062110	1.918144	5.16190e-05
6.248151	1.908495	7.37290e-05
6.528098	1.893977	1.15173e-04
6.728440	1.883587	1.74243e-04
6.882721	1.875586	2.14670e-04
7.029907	1.860384	2.53238e-04
7.311653	1.831283	3.65627e-04
7.564570	1.805161	4.84960e-04
7.985548	1.761679	6.45859e-04
8.251377	1.734223	8.64802e-04
8.699613	1.687927	1.18279e-03
8.995684	1.657347	1.84879e-03
9.241774	1.631929	2.97033e-03
9.412950	1.614249	4.71022e-03
9.453685	1.610042	5.12258e-03
9.670455	1.572580	7.31692e-03
9.887213	1.535120	1.08592e-02
10.568642	1.417357	9.93364e-03
10.749639	1.386077	1.44182e-02
11.079537	1.329065	2.13948e-02
11.205427	1.307309	3.27727e-02
11.588825	1.241050	4.22682e-02
11.681405	1.225051	3.89693e-02
11.989960	1.131583	2.79745e-02
12.503524	0.976015	4.50875e-02
12.693935	0.918335	5.41449e-02
12.887247	0.840019	6.33402e-02
13.083502	0.760510	9.91116e-02
13.249329	0.693329	1.35594e-01
13.441420	0.505270	1.77855e-01
13.535972	0.412703	2.04576e-01
13.612504	0.371428	2.26205e-01
13.669706	0.340579	2.91176e-01
13.756377	0.293837	4.82493e-01
13.908653	0.211713	5.80457e-01
14.110842	0.214441	7.10531e-01
14.539905	0.220229	1.04876e+00
15.388352	0.231675	1.39287e+00
15.685207	0.205301	1.51327e+00
15.862488	0.189550	1.58183e+00
16.787863	0.140008	1.93972e+00
17.042256	0.141831	2.03811e+00
18.991820	0.155795	2.70311e+00
19.527219	0.159630	2.95939e+00
20.902443	0.211571	3.61768e+00
21.253170	0.224817	3.99665e+00
22.288650	0.318900	5.11551e+00
22.317567	0.321527	5.16084e+00
22.714578	0.419635	5.78327e+00
23.235072	0.575067	6.59930e+00
23.384454	0.649911	6.83349e+00
23.589609	0.752699	7.67001e+00
23.665782	1.015872	7.98061e+00
24.039329	1.639337	9.50374e+00
24.356825	2.743274	1.07983e+01
24.779279	5.250409	1.25209e+01
24.936979	13.488889	1.31639e+01
25.059346	13.036480	1.36628e+01
25.153279	12.689197	5.90404e+00
25.709456	10.632932	3.53424e+00
25.848113	10.120297	2.36200e+00
26.165948	8.945218	1.57313e+00
26.524385	7.620027	1.02430e+00
26.688190	7.517386	7.73483e-01
27.334548	7.112378	5.58573e-01
27.961320	6.719642	4.08766e-01
28.841217	6.168299	3.06018e-01
30.049172	5.411394	2.49929e-01
30.731359	5.295661	2.18252e-01
32.532338	4.990125	1.37257e-01
34.823460	4.601436	7.27949e-02
36.289766	4.352678	6.66508e-02
41.412507	4.167016	4.51854e-02
49.845403	3.861385	4.46962e-02
57.108374	3.789553	4.42749e-02
68.464596	3.677237	5.13934e-02
79.000459	3.632433	5.79976e-02
94.038781	3.568483	6.56741e-02
97.291671	3.566693	6.73345e-02
103.746164	3.563143	4.49592e-02
108.558444	3.560496	3.20034e-02
110.211640	3.559587	2.27611e-02
111.890011	3.558663	1.66544e-02
118.478677	3.555039	1.16795e-02
129.165918	3.549161	9.59319e-03
136.276127	3.549161	8.20515e-03
170.922028	3.549161	6.03507e-03
177.414404	3.549161	5.83886e-03
216.867449	3.539734	4.64651e-03
243.685574	3.533327	4.15493e-03
280.249904	3.532874	3.48469e-03
334.711598	3.532199	2.93476e-03
363.090255	3.527858	2.64821e-03
459.739378	3.513073	2.02833e-03
473.337122	3.512074	1.94112e-03
572.384142	3.504801	1.58836e-03
576.725986	3.504482	1.58836e-03
