"Ttot_PMMA_1fv_CaCO3 - RawData"
"Wavelength nm.","T%"
220.00,0.164
221.00,0.155
222.00,0.149
223.00,0.137
224.00,0.138
225.00,0.130
226.00,0.120
227.00,0.098
228.00,0.099
229.00,0.116
230.00,0.128
231.00,0.106
232.00,0.093
233.00,0.082
234.00,0.094
235.00,0.081
236.00,0.069
237.00,0.064
238.00,0.083
239.00,0.083
240.00,0.067
241.00,0.045
242.00,0.042
243.00,0.051
244.00,0.054
245.00,0.044
246.00,0.034
247.00,0.032
248.00,0.039
249.00,0.043
250.00,0.039
251.00,0.045
252.00,0.044
253.00,0.043
254.00,0.031
255.00,0.022
256.00,0.019
257.00,0.021
258.00,0.024
259.00,0.025
260.00,0.024
261.00,0.024
262.00,0.023
263.00,0.019
264.00,0.014
265.00,0.012
266.00,0.017
267.00,0.021
268.00,0.020
269.00,0.020
270.00,0.016
271.00,0.016
272.00,0.015
273.00,0.017
274.00,0.017
275.00,0.025
276.00,0.029
277.00,0.029
278.00,0.027
279.00,0.021
280.00,0.021
281.00,0.016
282.00,0.020
283.00,0.022
284.00,0.021
285.00,0.016
286.00,0.015
287.00,0.012
288.00,0.012
289.00,0.011
290.00,0.014
291.00,0.016
292.00,0.018
293.00,0.021
294.00,0.025
295.00,0.024
296.00,0.026
297.00,0.031
298.00,0.046
299.00,0.072
300.00,0.108
301.00,0.160
302.00,0.229
303.00,0.335
304.00,0.480
305.00,0.683
306.00,0.956
307.00,1.299
308.00,1.736
309.00,2.263
310.00,2.928
311.00,3.703
312.00,4.644
313.00,5.717
314.00,6.952
315.00,8.289
316.00,9.795
317.00,11.391
318.00,13.163
319.00,15.060
320.00,17.121
321.00,19.228
322.00,21.395
323.00,23.781
324.00,26.218
325.00,28.777
326.00,31.073
327.00,33.425
328.00,35.744
329.00,38.125
330.00,40.438
331.00,42.535
332.00,44.681
333.00,46.626
334.00,48.585
335.00,50.425
336.00,52.204
337.00,53.949
338.00,55.433
339.00,57.003
340.00,58.463
341.00,59.858
342.00,61.119
343.00,62.190
344.00,63.259
345.00,64.103
346.00,65.081
347.00,65.931
348.00,66.806
349.00,67.627
350.00,68.331
351.00,69.022
352.00,69.544
353.00,70.057
354.00,70.589
355.00,71.106
356.00,71.597
357.00,72.071
358.00,72.299
359.00,72.630
360.00,72.797
361.00,73.063
362.00,73.306
363.00,73.483
364.00,73.727
365.00,73.930
366.00,74.154
367.00,74.294
368.00,74.290
369.00,74.494
370.00,74.605
371.00,74.794
372.00,74.636
373.00,74.627
374.00,74.600
375.00,74.642
376.00,74.509
377.00,74.346
378.00,74.264
379.00,74.202
380.00,74.124
381.00,74.118
382.00,74.206
383.00,74.369
384.00,74.472
385.00,74.655
386.00,74.756
387.00,74.978
388.00,75.111
389.00,75.372
390.00,75.513
391.00,75.615
392.00,75.658
393.00,75.805
394.00,75.981
395.00,76.098
396.00,76.224
397.00,76.329
398.00,76.445
399.00,76.522
400.00,76.635
401.00,76.748
402.00,76.810
403.00,76.797
404.00,76.821
405.00,76.825
406.00,76.832
407.00,76.812
408.00,76.768
409.00,76.786
410.00,76.842
411.00,76.826
412.00,76.794
413.00,76.730
414.00,76.692
415.00,76.692
416.00,76.737
417.00,76.833
418.00,76.884
419.00,76.925
420.00,76.886
421.00,76.892
422.00,76.884
423.00,76.939
424.00,76.906
425.00,76.957
426.00,76.942
427.00,76.990
428.00,76.946
429.00,77.013
430.00,77.019
431.00,76.981
432.00,76.933
433.00,76.894
434.00,76.947
435.00,76.938
436.00,76.999
437.00,77.022
438.00,77.023
439.00,77.096
440.00,77.120
441.00,77.172
442.00,77.110
443.00,77.042
444.00,77.086
445.00,77.135
446.00,77.240
447.00,77.319
448.00,77.287
449.00,77.292
450.00,77.205
451.00,77.285
452.00,77.312
453.00,77.363
454.00,77.322
455.00,77.370
456.00,77.373
457.00,77.416
458.00,77.383
459.00,77.439
460.00,77.447
461.00,77.463
462.00,77.450
463.00,77.486
464.00,77.477
465.00,77.533
466.00,77.548
467.00,77.672
468.00,77.671
469.00,77.732
470.00,77.740
471.00,77.739
472.00,77.764
473.00,77.731
474.00,77.762
475.00,77.725
476.00,77.745
477.00,77.777
478.00,77.830
479.00,77.862
480.00,77.919
481.00,77.972
482.00,78.002
483.00,77.968
484.00,77.930
485.00,77.961
486.00,78.004
487.00,78.003
488.00,77.951
489.00,77.940
490.00,78.006
491.00,78.042
492.00,78.092
493.00,78.081
494.00,78.134
495.00,78.125
496.00,78.149
497.00,78.135
498.00,78.162
499.00,78.170
500.00,78.183
501.00,78.152
502.00,78.160
503.00,78.213
504.00,78.277
505.00,78.273
506.00,78.214
507.00,78.176
508.00,78.210
509.00,78.222
510.00,78.200
511.00,78.197
512.00,78.256
513.00,78.295
514.00,78.334
515.00,78.356
516.00,78.413
517.00,78.391
518.00,78.380
519.00,78.311
520.00,78.297
521.00,78.243
522.00,78.257
523.00,78.264
524.00,78.254
525.00,78.317
526.00,78.307
527.00,78.362
528.00,78.293
529.00,78.262
530.00,78.241
531.00,78.272
532.00,78.309
533.00,78.315
534.00,78.296
535.00,78.309
536.00,78.321
537.00,78.377
538.00,78.391
539.00,78.399
540.00,78.379
541.00,78.384
542.00,78.380
543.00,78.399
544.00,78.436
545.00,78.429
546.00,78.408
547.00,78.386
548.00,78.388
549.00,78.421
550.00,78.438
551.00,78.478
552.00,78.481
553.00,78.433
554.00,78.393
555.00,78.373
556.00,78.394
557.00,78.409
558.00,78.400
559.00,78.415
560.00,78.376
561.00,78.343
562.00,78.325
563.00,78.380
564.00,78.447
565.00,78.468
566.00,78.447
567.00,78.407
568.00,78.387
569.00,78.357
570.00,78.342
571.00,78.305
572.00,78.272
573.00,78.274
574.00,78.274
575.00,78.318
576.00,78.331
577.00,78.316
578.00,78.316
579.00,78.268
580.00,78.302
581.00,78.317
582.00,78.348
583.00,78.399
584.00,78.419
585.00,78.398
586.00,78.337
587.00,78.269
588.00,78.306
589.00,78.335
590.00,78.272
591.00,78.272
592.00,78.182
593.00,78.247
594.00,78.233
595.00,78.268
596.00,78.267
597.00,78.240
598.00,78.293
599.00,78.304
600.00,78.251
601.00,78.209
602.00,78.162
603.00,78.238
604.00,78.223
605.00,78.210
606.00,78.201
607.00,78.129
608.00,78.152
609.00,78.150
610.00,78.204
611.00,78.231
612.00,78.182
613.00,78.171
614.00,78.118
615.00,78.104
616.00,78.071
617.00,78.086
618.00,78.086
619.00,78.114
620.00,78.075
621.00,78.091
622.00,78.044
623.00,78.078
624.00,78.064
625.00,78.121
626.00,78.080
627.00,78.007
628.00,77.976
629.00,77.962
630.00,77.975
631.00,77.944
632.00,77.932
633.00,77.989
634.00,77.960
635.00,78.001
636.00,77.979
637.00,77.984
638.00,77.972
639.00,77.898
640.00,77.928
641.00,77.922
642.00,77.889
643.00,77.834
644.00,77.726
645.00,77.753
646.00,77.831
647.00,77.891
648.00,77.964
649.00,77.896
650.00,77.858
651.00,77.795
652.00,77.796
653.00,77.832
654.00,77.835
655.00,77.777
656.00,77.738
657.00,77.651
658.00,77.682
659.00,77.669
660.00,77.752
661.00,77.694
662.00,77.750
663.00,77.695
664.00,77.738
665.00,77.705
666.00,77.763
667.00,77.754
668.00,77.747
669.00,77.671
670.00,77.600
671.00,77.566
672.00,77.545
673.00,77.558
674.00,77.544
675.00,77.553
676.00,77.546
677.00,77.514
678.00,77.570
679.00,77.660
680.00,77.706
681.00,77.689
682.00,77.653
683.00,77.688
684.00,77.659
685.00,77.644
686.00,77.519
687.00,77.481
688.00,77.408
689.00,77.354
690.00,77.305
691.00,77.328
692.00,77.313
693.00,77.386
694.00,77.321
695.00,77.420
696.00,77.309
697.00,77.357
698.00,77.388
699.00,77.440
700.00,77.367
701.00,77.305
702.00,77.291
703.00,77.319
704.00,77.283
705.00,77.269
706.00,77.289
707.00,77.294
708.00,77.316
709.00,77.338
710.00,77.247
711.00,77.224
712.00,77.089
713.00,77.191
714.00,77.133
715.00,77.194
716.00,77.204
717.00,77.099
718.00,77.132
719.00,76.973
720.00,77.076
721.00,77.016
722.00,76.981
723.00,76.974
724.00,76.964
725.00,77.093
726.00,77.174
727.00,77.143
728.00,77.042
729.00,76.909
730.00,76.829
731.00,76.876
732.00,76.899
733.00,76.999
734.00,76.982
735.00,76.884
736.00,76.800
737.00,76.767
738.00,76.694
739.00,76.790
740.00,76.715
741.00,76.759
742.00,76.644
743.00,76.675
744.00,76.615
745.00,76.496
746.00,76.535
747.00,76.595
748.00,76.637
749.00,76.565
750.00,76.540
751.00,76.501
752.00,76.525
753.00,76.509
754.00,76.503
755.00,76.491
756.00,76.549
757.00,76.540
758.00,76.451
759.00,76.399
760.00,76.309
761.00,76.412
762.00,76.379
763.00,76.491
764.00,76.412
765.00,76.292
766.00,76.340
767.00,76.165
768.00,76.241
769.00,76.163
770.00,76.326
771.00,76.204
772.00,76.127
773.00,76.107
774.00,76.284
775.00,76.298
776.00,76.222
777.00,76.135
778.00,76.146
779.00,76.156
780.00,76.235
781.00,76.349
782.00,76.336
783.00,76.351
784.00,76.305
785.00,76.262
786.00,76.240
787.00,76.288
788.00,76.371
789.00,76.260
790.00,76.016
791.00,75.866
792.00,75.872
793.00,76.101
794.00,76.353
795.00,76.425
796.00,76.321
797.00,76.263
798.00,76.094
799.00,76.018
800.00,75.759
801.00,75.877
802.00,75.904
803.00,76.093
804.00,76.012
805.00,75.970
806.00,75.846
807.00,75.842
808.00,75.747
809.00,75.597
810.00,75.446
811.00,75.599
812.00,75.892
813.00,76.060
814.00,76.016
815.00,75.737
816.00,75.608
817.00,75.438
818.00,75.677
819.00,75.530
820.00,75.641
821.00,75.398
822.00,75.609
823.00,75.615
824.00,75.764
825.00,75.626
826.00,75.353
827.00,75.151
828.00,75.353
829.00,75.537
830.00,75.122
831.00,74.393
832.00,73.791
833.00,73.765
834.00,73.767
835.00,73.815
836.00,73.799
837.00,73.719
838.00,73.752
839.00,73.640
840.00,73.686
841.00,73.552
842.00,73.620
843.00,73.653
844.00,73.699
845.00,73.754
846.00,73.669
847.00,73.678
848.00,73.530
849.00,73.557
850.00,73.498
851.00,73.497
852.00,73.499
853.00,73.500
854.00,73.588
855.00,73.548
856.00,73.533
857.00,73.463
858.00,73.488
859.00,73.490
860.00,73.469
861.00,73.363
862.00,73.289
863.00,73.240
864.00,73.363
865.00,73.355
866.00,73.447
867.00,73.404
868.00,73.440
869.00,73.453
870.00,73.440
871.00,73.429
872.00,73.387
873.00,73.285
874.00,73.327
875.00,73.309
876.00,73.393
877.00,73.408
878.00,73.380
879.00,73.387
880.00,73.295
881.00,73.310
882.00,73.323
883.00,73.384
884.00,73.402
885.00,73.235
886.00,73.276
887.00,73.329
888.00,73.428
889.00,73.361
890.00,73.217
891.00,73.273
892.00,73.276
893.00,73.329
894.00,73.256
895.00,73.227
896.00,73.227
897.00,73.192
898.00,73.152
899.00,73.188
900.00,73.286
901.00,73.306
902.00,73.238
903.00,73.229
904.00,73.241
905.00,73.237
906.00,73.240
907.00,73.226
908.00,73.211
909.00,73.221
910.00,73.246
911.00,73.304
912.00,73.242
913.00,73.233
914.00,73.211
915.00,73.188
916.00,73.229
917.00,73.210
918.00,73.257
919.00,73.241
920.00,73.270
921.00,73.337
922.00,73.300
923.00,73.281
924.00,73.196
925.00,73.193
926.00,73.198
927.00,73.141
928.00,73.093
929.00,73.011
930.00,73.002
931.00,73.017
932.00,73.025
933.00,73.081
934.00,73.113
935.00,73.189
936.00,73.184
937.00,73.132
938.00,73.103
939.00,73.083
940.00,73.122
941.00,73.154
942.00,73.140
943.00,73.172
944.00,73.143
945.00,73.195
946.00,73.175
947.00,73.184
948.00,73.208
949.00,73.198
950.00,73.230
951.00,73.191
952.00,73.193
953.00,73.201
954.00,73.237
955.00,73.264
956.00,73.219
957.00,73.151
958.00,73.118
959.00,73.108
960.00,73.130
961.00,73.128
962.00,73.119
963.00,73.167
964.00,73.142
965.00,73.183
966.00,73.149
967.00,73.203
968.00,73.212
969.00,73.256
970.00,73.313
971.00,73.294
972.00,73.299
973.00,73.301
974.00,73.299
975.00,73.268
976.00,73.230
977.00,73.283
978.00,73.273
979.00,73.286
980.00,73.294
981.00,73.296
982.00,73.274
983.00,73.233
984.00,73.249
985.00,73.230
986.00,73.142
987.00,73.134
988.00,73.113
989.00,73.198
990.00,73.197
991.00,73.183
992.00,73.115
993.00,73.069
994.00,73.111
995.00,73.178
996.00,73.169
997.00,73.162
998.00,73.106
999.00,73.122
1000.00,73.066
1001.00,73.082
1002.00,73.115
1003.00,73.078
1004.00,73.047
1005.00,72.980
1006.00,73.003
1007.00,73.002
1008.00,72.979
1009.00,72.991
1010.00,72.989
1011.00,73.028
1012.00,73.051
1013.00,73.039
1014.00,73.078
1015.00,73.082
1016.00,73.138
1017.00,73.108
1018.00,73.087
1019.00,73.080
1020.00,73.056
1021.00,73.083
1022.00,73.061
1023.00,73.095
1024.00,73.116
1025.00,73.067
1026.00,73.066
1027.00,73.025
1028.00,73.086
1029.00,73.104
1030.00,73.132
1031.00,73.144
1032.00,73.083
1033.00,73.066
1034.00,73.012
1035.00,73.007
1036.00,73.031
1037.00,73.046
1038.00,73.082
1039.00,73.078
1040.00,73.104
1041.00,73.119
1042.00,73.065
1043.00,73.061
1044.00,73.045
1045.00,73.062
1046.00,73.092
1047.00,73.097
1048.00,73.127
1049.00,73.156
1050.00,73.160
1051.00,73.184
1052.00,73.111
1053.00,73.120
1054.00,73.086
1055.00,73.084
1056.00,73.077
1057.00,73.063
1058.00,73.074
1059.00,73.066
1060.00,73.093
1061.00,73.062
1062.00,73.037
1063.00,73.046
1064.00,73.047
1065.00,73.063
1066.00,73.036
1067.00,73.034
1068.00,73.061
1069.00,73.045
1070.00,73.079
1071.00,73.069
1072.00,73.129
1073.00,73.176
1074.00,73.188
1075.00,73.175
1076.00,73.111
1077.00,73.102
1078.00,73.119
1079.00,73.134
1080.00,73.136
1081.00,73.115
1082.00,73.137
1083.00,73.135
1084.00,73.156
1085.00,73.178
1086.00,73.166
1087.00,73.133
1088.00,73.137
1089.00,73.156
1090.00,73.136
1091.00,73.062
1092.00,73.039
1093.00,73.046
1094.00,73.061
1095.00,73.075
1096.00,73.057
1097.00,73.061
1098.00,73.020
1099.00,73.035
1100.00,73.055
1101.00,73.032
1102.00,73.002
1103.00,72.991
1104.00,73.042
1105.00,73.125
1106.00,73.158
1107.00,73.242
1108.00,73.245
1109.00,73.316
1110.00,73.319
1111.00,73.337
1112.00,73.307
1113.00,73.290
1114.00,73.275
1115.00,73.255
1116.00,73.225
1117.00,73.227
1118.00,73.178
1119.00,73.195
1120.00,73.137
1121.00,73.137
1122.00,73.109
1123.00,73.098
1124.00,73.119
1125.00,73.100
1126.00,73.167
1127.00,73.222
1128.00,73.248
1129.00,73.291
1130.00,73.307
1131.00,73.372
1132.00,73.393
1133.00,73.427
1134.00,73.433
1135.00,73.374
1136.00,73.300
1137.00,73.272
1138.00,73.283
1139.00,73.306
1140.00,73.248
1141.00,73.241
1142.00,73.245
1143.00,73.257
1144.00,73.223
1145.00,73.154
1146.00,73.188
1147.00,73.236
1148.00,73.286
1149.00,73.346
1150.00,73.336
1151.00,73.389
1152.00,73.384
1153.00,73.432
1154.00,73.411
1155.00,73.389
1156.00,73.380
1157.00,73.393
1158.00,73.408
1159.00,73.421
1160.00,73.478
1161.00,73.532
1162.00,73.534
1163.00,73.533
1164.00,73.503
1165.00,73.497
1166.00,73.458
1167.00,73.476
1168.00,73.523
1169.00,73.571
1170.00,73.547
1171.00,73.486
1172.00,73.368
1173.00,73.360
1174.00,73.412
1175.00,73.489
1176.00,73.491
1177.00,73.464
1178.00,73.420
1179.00,73.428
1180.00,73.470
1181.00,73.568
1182.00,73.589
1183.00,73.593
1184.00,73.550
1185.00,73.582
1186.00,73.564
1187.00,73.543
1188.00,73.498
1189.00,73.467
1190.00,73.444
1191.00,73.399
1192.00,73.357
1193.00,73.383
1194.00,73.375
1195.00,73.419
1196.00,73.361
1197.00,73.407
1198.00,73.446
1199.00,73.443
1200.00,73.407
1201.00,73.433
1202.00,73.435
1203.00,73.444
1204.00,73.489
1205.00,73.573
1206.00,73.605
1207.00,73.520
1208.00,73.493
1209.00,73.476
1210.00,73.503
1211.00,73.543
1212.00,73.596
1213.00,73.613
1214.00,73.696
1215.00,73.755
1216.00,73.742
1217.00,73.709
1218.00,73.721
1219.00,73.774
1220.00,73.801
1221.00,73.751
1222.00,73.797
1223.00,73.804
1224.00,73.811
1225.00,73.719
1226.00,73.694
1227.00,73.726
1228.00,73.721
1229.00,73.664
1230.00,73.615
1231.00,73.622
1232.00,73.707
1233.00,73.766
1234.00,73.834
1235.00,73.848
1236.00,73.881
1237.00,73.914
1238.00,73.905
1239.00,73.884
1240.00,73.821
1241.00,73.885
1242.00,73.924
1243.00,73.957
1244.00,73.879
1245.00,73.853
1246.00,73.819
1247.00,73.843
1248.00,73.825
1249.00,73.889
1250.00,73.893
1251.00,73.943
1252.00,73.947
1253.00,73.976
1254.00,73.996
1255.00,73.963
1256.00,73.950
1257.00,73.923
1258.00,73.964
1259.00,73.999
1260.00,73.983
1261.00,74.005
1262.00,73.997
1263.00,74.023
1264.00,73.983
1265.00,73.993
1266.00,74.097
1267.00,74.120
1268.00,74.132
1269.00,74.194
1270.00,74.139
1271.00,74.236
1272.00,74.206
1273.00,74.184
1274.00,74.079
1275.00,74.007
1276.00,74.087
1277.00,74.124
1278.00,74.120
1279.00,74.135
1280.00,74.100
1281.00,74.111
1282.00,74.143
1283.00,74.166
1284.00,74.163
1285.00,74.214
1286.00,74.247
1287.00,74.225
1288.00,74.241
1289.00,74.276
1290.00,74.311
1291.00,74.295
1292.00,74.228
1293.00,74.276
1294.00,74.264
1295.00,74.348
1296.00,74.327
1297.00,74.363
1298.00,74.393
1299.00,74.435
1300.00,74.467
1301.00,74.404
1302.00,74.346
1303.00,74.272
1304.00,74.238
1305.00,74.307
1306.00,74.346
1307.00,74.388
1308.00,74.375
1309.00,74.364
1310.00,74.407
1311.00,74.421
1312.00,74.477
1313.00,74.501
1314.00,74.457
1315.00,74.511
1316.00,74.527
1317.00,74.590
1318.00,74.587
1319.00,74.607
1320.00,74.673
1321.00,74.641
1322.00,74.673
1323.00,74.663
1324.00,74.739
1325.00,74.762
1326.00,74.733
1327.00,74.717
1328.00,74.652
1329.00,74.642
1330.00,74.619
1331.00,74.639
1332.00,74.740
1333.00,74.811
1334.00,74.894
1335.00,74.864
1336.00,74.826
1337.00,74.828
1338.00,74.790
1339.00,74.859
1340.00,74.872
1341.00,74.921
1342.00,74.937
1343.00,74.892
1344.00,74.923
1345.00,74.920
1346.00,74.958
1347.00,74.970
1348.00,74.981
1349.00,75.018
1350.00,74.947
1351.00,74.950
1352.00,75.013
1353.00,75.083
1354.00,75.065
1355.00,74.980
1356.00,75.008
1357.00,75.024
1358.00,75.084
1359.00,75.150
1360.00,75.239
1361.00,75.263
1362.00,75.268
1363.00,75.201
1364.00,75.205
1365.00,75.176
1366.00,75.256
1367.00,75.279
1368.00,75.245
1369.00,75.218
1370.00,75.162
1371.00,75.189
1372.00,75.264
1373.00,75.358
1374.00,75.422
1375.00,75.373
1376.00,75.390
1377.00,75.446
1378.00,75.526
1379.00,75.529
1380.00,75.558
1381.00,75.599
1382.00,75.598
1383.00,75.510
1384.00,75.466
1385.00,75.505
1386.00,75.696
1387.00,75.797
1388.00,75.772
1389.00,75.692
1390.00,75.607
1391.00,75.773
1392.00,75.774
1393.00,75.878
1394.00,75.801
1395.00,75.847
1396.00,75.802
1397.00,75.887
1398.00,75.877
1399.00,75.788
1400.00,75.619
